Theta [deg.]  Phi   [deg.]  Abs(E   )[dB(V/m)]   Abs(Theta)[dB(V/m)]  Phase(Theta)[deg.]  Abs(Phi  )[dB(V/m)]  Phase(Phi  )[deg.]  Ax.Ratio[dB    ]    
---------------------------------------------------------------------------------------------------------------------------------------------------------
   0.000          90.000            1.841e+01           1.841e+01             220.447          -1.115e+02              52.291           4.000e+01     
   1.000          90.000            1.837e+01           1.837e+01             220.644          -1.184e+02             125.215           4.000e+01     
   2.000          90.000            1.833e+01           1.833e+01             221.125          -1.101e+02             179.355           4.000e+01     
   3.000          90.000            1.829e+01           1.829e+01             221.876          -1.049e+02             187.524           4.000e+01     
   4.000          90.000            1.826e+01           1.826e+01             222.876          -1.015e+02             189.401           4.000e+01     
   5.000          90.000            1.823e+01           1.823e+01             224.093          -9.914e+01             189.551           4.000e+01     
   6.000          90.000            1.821e+01           1.821e+01             225.486          -9.726e+01             189.066           4.000e+01     
   7.000          90.000            1.820e+01           1.820e+01             227.005          -9.574e+01             188.344           4.000e+01     
   8.000          90.000            1.820e+01           1.820e+01             228.600          -9.448e+01             187.575           4.000e+01     
   9.000          90.000            1.821e+01           1.821e+01             230.212          -9.343e+01             186.852           4.000e+01     
  10.000          90.000            1.822e+01           1.822e+01             231.787          -9.254e+01             186.247           4.000e+01     
  11.000          90.000            1.824e+01           1.824e+01             233.274          -9.178e+01             185.807           4.000e+01     
  12.000          90.000            1.826e+01           1.826e+01             234.626          -9.115e+01             185.570           4.000e+01     
  13.000          90.000            1.827e+01           1.827e+01             235.802          -9.063e+01             185.568           4.000e+01     
  14.000          90.000            1.828e+01           1.828e+01             236.772          -9.021e+01             185.837           4.000e+01     
  15.000          90.000            1.828e+01           1.828e+01             237.509          -8.987e+01             186.408           4.000e+01     
  16.000          90.000            1.827e+01           1.827e+01             237.997          -8.962e+01             187.318           4.000e+01     
  17.000          90.000            1.824e+01           1.824e+01             238.223          -8.944e+01             188.606           4.000e+01     
  18.000          90.000            1.820e+01           1.820e+01             238.182          -8.934e+01             190.314           4.000e+01     
  19.000          90.000            1.815e+01           1.815e+01             237.873          -8.929e+01             192.487           4.000e+01     
  20.000          90.000            1.808e+01           1.808e+01             237.302          -8.928e+01             195.168           4.000e+01     
  21.000          90.000            1.800e+01           1.800e+01             236.479          -8.931e+01             198.398           4.000e+01     
  22.000          90.000            1.791e+01           1.791e+01             235.420          -8.936e+01             202.204           4.000e+01     
  23.000          90.000            1.782e+01           1.782e+01             234.149          -8.941e+01             206.588           4.000e+01     
  24.000          90.000            1.772e+01           1.772e+01             232.693          -8.944e+01             211.521           4.000e+01     
  25.000          90.000            1.763e+01           1.763e+01             231.090          -8.942e+01             216.927           4.000e+01     
  26.000          90.000            1.754e+01           1.754e+01             229.379          -8.933e+01             222.680           4.000e+01     
  27.000          90.000            1.746e+01           1.746e+01             227.608          -8.918e+01             228.617           4.000e+01     
  28.000          90.000            1.739e+01           1.739e+01             225.826          -8.894e+01             234.554           4.000e+01     
  29.000          90.000            1.734e+01           1.734e+01             224.084          -8.863e+01             240.320           4.000e+01     
  30.000          90.000            1.729e+01           1.729e+01             222.430          -8.827e+01             245.776           4.000e+01     
  31.000          90.000            1.726e+01           1.726e+01             220.910          -8.786e+01             250.832           4.000e+01     
  32.000          90.000            1.724e+01           1.724e+01             219.563          -8.744e+01             255.445           4.000e+01     
  33.000          90.000            1.722e+01           1.722e+01             218.420          -8.701e+01             259.610           4.000e+01     
  34.000          90.000            1.721e+01           1.721e+01             217.509          -8.660e+01             263.353           4.000e+01     
  35.000          90.000            1.720e+01           1.720e+01             216.844          -8.620e+01             266.709           4.000e+01     
  36.000          90.000            1.719e+01           1.719e+01             216.436          -8.584e+01             269.726           4.000e+01     
  37.000          90.000            1.718e+01           1.718e+01             216.288          -8.551e+01             272.449           4.000e+01     
  38.000          90.000            1.717e+01           1.717e+01             216.397          -8.522e+01             274.924           4.000e+01     
  39.000          90.000            1.716e+01           1.716e+01             216.754          -8.496e+01             277.191           4.000e+01     
  40.000          90.000            1.715e+01           1.715e+01             217.347          -8.475e+01             279.287           4.000e+01     
  41.000          90.000            1.713e+01           1.713e+01             218.159          -8.457e+01             281.243           4.000e+01     
  42.000          90.000            1.711e+01           1.711e+01             219.171          -8.444e+01             283.089           4.000e+01     
  43.000          90.000            1.709e+01           1.709e+01             220.358          -8.434e+01             284.848           4.000e+01     
  44.000          90.000            1.708e+01           1.708e+01             221.698          -8.427e+01             286.540           4.000e+01     
  45.000          90.000            1.706e+01           1.706e+01             223.164          -8.424e+01             288.185           4.000e+01     
  46.000          90.000            1.704e+01           1.704e+01             224.728          -8.424e+01             289.796           4.000e+01     
  47.000          90.000            1.702e+01           1.702e+01             226.365          -8.427e+01             291.387           4.000e+01     
  48.000          90.000            1.701e+01           1.701e+01             228.048          -8.432e+01             292.970           4.000e+01     
  49.000          90.000            1.699e+01           1.699e+01             229.752          -8.440e+01             294.551           4.000e+01     
  50.000          90.000            1.697e+01           1.697e+01             231.456          -8.450e+01             296.139           4.000e+01     
  51.000          90.000            1.696e+01           1.696e+01             233.138          -8.461e+01             297.738           4.000e+01     
  52.000          90.000            1.694e+01           1.694e+01             234.780          -8.475e+01             299.351           4.000e+01     
  53.000          90.000            1.691e+01           1.691e+01             236.368          -8.489e+01             300.981           4.000e+01     
  54.000          90.000            1.688e+01           1.688e+01             237.889          -8.505e+01             302.627           4.000e+01     
  55.000          90.000            1.685e+01           1.685e+01             239.334          -8.522e+01             304.289           4.000e+01     
  56.000          90.000            1.680e+01           1.680e+01             240.693          -8.539e+01             305.961           4.000e+01     
  57.000          90.000            1.675e+01           1.675e+01             241.962          -8.556e+01             307.640           4.000e+01     
  58.000          90.000            1.669e+01           1.669e+01             243.137          -8.574e+01             309.321           4.000e+01     
  59.000          90.000            1.662e+01           1.662e+01             244.216          -8.592e+01             310.996           4.000e+01     
  60.000          90.000            1.653e+01           1.653e+01             245.197          -8.609e+01             312.657           4.000e+01     
  61.000          90.000            1.644e+01           1.644e+01             246.080          -8.627e+01             314.297           4.000e+01     
  62.000          90.000            1.633e+01           1.633e+01             246.865          -8.643e+01             315.906           4.000e+01     
  63.000          90.000            1.621e+01           1.621e+01             247.552          -8.660e+01             317.477           4.000e+01     
  64.000          90.000            1.608e+01           1.608e+01             248.144          -8.675e+01             318.999           4.000e+01     
  65.000          90.000            1.594e+01           1.594e+01             248.640          -8.690e+01             320.466           4.000e+01     
  66.000          90.000            1.579e+01           1.579e+01             249.042          -8.705e+01             321.870           4.000e+01     
  67.000          90.000            1.562e+01           1.562e+01             249.352          -8.718e+01             323.204           4.000e+01     
  68.000          90.000            1.544e+01           1.544e+01             249.569          -8.731e+01             324.463           4.000e+01     
  69.000          90.000            1.525e+01           1.525e+01             249.695          -8.743e+01             325.642           4.000e+01     
  70.000          90.000            1.505e+01           1.505e+01             249.730          -8.754e+01             326.737           4.000e+01     
  71.000          90.000            1.484e+01           1.484e+01             249.675          -8.765e+01             327.748           4.000e+01     
  72.000          90.000            1.462e+01           1.462e+01             249.530          -8.775e+01             328.671           4.000e+01     
  73.000          90.000            1.440e+01           1.440e+01             249.295          -8.784e+01             329.508           4.000e+01     
  74.000          90.000            1.416e+01           1.416e+01             248.968          -8.793e+01             330.257           4.000e+01     
  75.000          90.000            1.392e+01           1.392e+01             248.549          -8.801e+01             330.919           4.000e+01     
  76.000          90.000            1.367e+01           1.367e+01             248.038          -8.809e+01             331.498           4.000e+01     
  77.000          90.000            1.341e+01           1.341e+01             247.433          -8.816e+01             331.994           4.000e+01     
  78.000          90.000            1.314e+01           1.314e+01             246.733          -8.823e+01             332.411           4.000e+01     
  79.000          90.000            1.288e+01           1.288e+01             245.935          -8.829e+01             332.751           4.000e+01     
  80.000          90.000            1.260e+01           1.260e+01             245.038          -8.834e+01             333.017           4.000e+01     
  81.000          90.000            1.233e+01           1.233e+01             244.039          -8.839e+01             333.212           4.000e+01     
  82.000          90.000            1.205e+01           1.205e+01             242.936          -8.844e+01             333.340           4.000e+01     
  83.000          90.000            1.176e+01           1.176e+01             241.727          -8.848e+01             333.403           4.000e+01     
  84.000          90.000            1.148e+01           1.148e+01             240.408          -8.851e+01             333.404           4.000e+01     
  85.000          90.000            1.119e+01           1.119e+01             238.977          -8.854e+01             333.346           4.000e+01     
  86.000          90.000            1.091e+01           1.091e+01             237.430          -8.856e+01             333.232           4.000e+01     
  87.000          90.000            1.062e+01           1.062e+01             235.766          -8.858e+01             333.063           4.000e+01     
  88.000          90.000            1.034e+01           1.034e+01             233.979          -8.859e+01             332.842           4.000e+01     
  89.000          90.000            1.005e+01           1.005e+01             232.069          -8.860e+01             332.571           4.000e+01     
  90.000          90.000            9.775e+00           9.775e+00             230.032          -8.860e+01             332.251           4.000e+01     
  91.000          90.000            9.499e+00           9.499e+00             227.865          -8.859e+01             331.884           4.000e+01     
  92.000          90.000            9.229e+00           9.229e+00             225.569          -8.858e+01             331.470           4.000e+01     
  93.000          90.000            8.965e+00           8.965e+00             223.140          -8.856e+01             331.010           4.000e+01     
  94.000          90.000            8.708e+00           8.708e+00             220.580          -8.854e+01             330.504           4.000e+01     
  95.000          90.000            8.459e+00           8.459e+00             217.888          -8.850e+01             329.954           4.000e+01     
  96.000          90.000            8.221e+00           8.221e+00             215.068          -8.846e+01             329.358           4.000e+01     
  97.000          90.000            7.993e+00           7.993e+00             212.123          -8.842e+01             328.717           4.000e+01     
  98.000          90.000            7.776e+00           7.776e+00             209.058          -8.836e+01             328.030           4.000e+01     
  99.000          90.000            7.573e+00           7.573e+00             205.880          -8.830e+01             327.297           4.000e+01     
 100.000          90.000            7.384e+00           7.384e+00             202.597          -8.823e+01             326.519           4.000e+01     
 101.000          90.000            7.209e+00           7.209e+00             199.220          -8.815e+01             325.693           4.000e+01     
 102.000          90.000            7.049e+00           7.049e+00             195.761          -8.807e+01             324.821           4.000e+01     
 103.000          90.000            6.903e+00           6.903e+00             192.233          -8.798e+01             323.902           4.000e+01     
 104.000          90.000            6.772e+00           6.772e+00             188.650          -8.787e+01             322.936           4.000e+01     
 105.000          90.000            6.654e+00           6.654e+00             185.027          -8.776e+01             321.923           4.000e+01     
 106.000          90.000            6.548e+00           6.548e+00             181.377          -8.764e+01             320.864           4.000e+01     
 107.000          90.000            6.453e+00           6.453e+00             177.715          -8.751e+01             319.760           4.000e+01     
 108.000          90.000            6.366e+00           6.366e+00             174.053          -8.738e+01             318.611           4.000e+01     
 109.000          90.000            6.283e+00           6.283e+00             170.402          -8.723e+01             317.420           4.000e+01     
 110.000          90.000            6.203e+00           6.203e+00             166.769          -8.708e+01             316.189           4.000e+01     
 111.000          90.000            6.122e+00           6.122e+00             163.162          -8.692e+01             314.920           4.000e+01     
 112.000          90.000            6.036e+00           6.036e+00             159.584          -8.675e+01             313.614           4.000e+01     
 113.000          90.000            5.941e+00           5.941e+00             156.033          -8.658e+01             312.276           4.000e+01     
 114.000          90.000            5.832e+00           5.832e+00             152.508          -8.640e+01             310.909           4.000e+01     
 115.000          90.000            5.705e+00           5.705e+00             149.000          -8.621e+01             309.515           4.000e+01     
 116.000          90.000            5.556e+00           5.556e+00             145.499          -8.602e+01             308.098           4.000e+01     
 117.000          90.000            5.380e+00           5.380e+00             141.990          -8.582e+01             306.661           4.000e+01     
 118.000          90.000            5.171e+00           5.171e+00             138.453          -8.563e+01             305.208           4.000e+01     
 119.000          90.000            4.925e+00           4.925e+00             134.861          -8.543e+01             303.742           4.000e+01     
 120.000          90.000            4.636e+00           4.636e+00             131.181          -8.523e+01             302.265           4.000e+01     
 121.000          90.000            4.298e+00           4.298e+00             127.372          -8.503e+01             300.780           4.000e+01     
 122.000          90.000            3.907e+00           3.907e+00             123.380          -8.483e+01             299.290           4.000e+01     
 123.000          90.000            3.456e+00           3.456e+00             119.135          -8.464e+01             297.794           4.000e+01     
 124.000          90.000            2.940e+00           2.940e+00             114.550          -8.445e+01             296.295           4.000e+01     
 125.000          90.000            2.357e+00           2.357e+00             109.507          -8.427e+01             294.793           4.000e+01     
 126.000          90.000            1.707e+00           1.707e+00             103.858          -8.410e+01             293.285           4.000e+01     
 127.000          90.000            9.931e-01           9.931e-01              97.409          -8.395e+01             291.773           4.000e+01     
 128.000          90.000            2.343e-01           2.343e-01              89.927          -8.380e+01             290.254           4.000e+01     
 129.000          90.000           -5.344e-01          -5.344e-01              81.155          -8.367e+01             288.725           4.000e+01     
 130.000          90.000           -1.250e+00          -1.250e+00              70.881          -8.355e+01             287.182           4.000e+01     
 131.000          90.000           -1.817e+00          -1.817e+00              59.082          -8.345e+01             285.621           4.000e+01     
 132.000          90.000           -2.132e+00          -2.132e+00              46.111          -8.337e+01             284.036           4.000e+01     
 133.000          90.000           -2.123e+00          -2.123e+00              32.758          -8.331e+01             282.422           4.000e+01     
 134.000          90.000           -1.800e+00          -1.800e+00              19.990          -8.327e+01             280.770           4.000e+01     
 135.000          90.000           -1.249e+00          -1.249e+00               8.533          -8.325e+01             279.074           4.000e+01     
 136.000          90.000           -5.808e-01          -5.808e-01             358.663          -8.326e+01             277.323           4.000e+01     
 137.000          90.000            1.089e-01           1.089e-01             350.311          -8.329e+01             275.509           4.000e+01     
 138.000          90.000            7.560e-01           7.560e-01             343.242          -8.334e+01             273.619           4.000e+01     
 139.000          90.000            1.323e+00           1.323e+00             337.194          -8.343e+01             271.641           4.000e+01     
 140.000          90.000            1.788e+00           1.788e+00             331.929          -8.354e+01             269.564           4.000e+01     
 141.000          90.000            2.139e+00           2.139e+00             327.250          -8.367e+01             267.372           4.000e+01     
 142.000          90.000            2.370e+00           2.370e+00             322.993          -8.383e+01             265.053           4.000e+01     
 143.000          90.000            2.474e+00           2.474e+00             319.023          -8.401e+01             262.593           4.000e+01     
 144.000          90.000            2.446e+00           2.446e+00             315.219          -8.421e+01             259.979           4.000e+01     
 145.000          90.000            2.279e+00           2.279e+00             311.464          -8.444e+01             257.200           4.000e+01     
 146.000          90.000            1.963e+00           1.963e+00             307.636          -8.468e+01             254.247           4.000e+01     
 147.000          90.000            1.488e+00           1.488e+00             303.590          -8.493e+01             251.117           4.000e+01     
 148.000          90.000            8.375e-01           8.375e-01             299.133          -8.518e+01             247.813           4.000e+01     
 149.000          90.000           -3.846e-03          -3.846e-03             293.998          -8.544e+01             244.345           4.000e+01     
 150.000          90.000           -1.052e+00          -1.052e+00             287.781          -8.570e+01             240.734           4.000e+01     
 151.000          90.000           -2.313e+00          -2.313e+00             279.847          -8.595e+01             237.010           4.000e+01     
 152.000          90.000           -3.745e+00          -3.745e+00             269.216          -8.619e+01             233.214           4.000e+01     
 153.000          90.000           -5.186e+00          -5.186e+00             254.606          -8.641e+01             229.396           4.000e+01     
 154.000          90.000           -6.235e+00          -6.235e+00             235.337          -8.662e+01             225.612           4.000e+01     
 155.000          90.000           -6.379e+00          -6.379e+00             213.554          -8.681e+01             221.923           4.000e+01     
 156.000          90.000           -5.585e+00          -5.585e+00             193.925          -8.699e+01             218.385           4.000e+01     
 157.000          90.000           -4.347e+00          -4.347e+00             178.983          -8.716e+01             215.054           4.000e+01     
 158.000          90.000           -3.102e+00          -3.102e+00             168.261          -8.734e+01             211.972           4.000e+01     
 159.000          90.000           -2.042e+00          -2.042e+00             160.473          -8.752e+01             209.177           4.000e+01     
 160.000          90.000           -1.225e+00          -1.225e+00             154.598          -8.772e+01             206.694           4.000e+01     
 161.000          90.000           -6.588e-01          -6.588e-01             149.968          -8.794e+01             204.540           4.000e+01     
 162.000          90.000           -3.413e-01          -3.413e-01             146.158          -8.819e+01             202.724           4.000e+01     
 163.000          90.000           -2.718e-01          -2.718e-01             142.885          -8.848e+01             201.251           4.000e+01     
 164.000          90.000           -4.578e-01          -4.578e-01             139.942          -8.881e+01             200.122           4.000e+01     
 165.000          90.000           -9.189e-01          -9.189e-01             137.159          -8.920e+01             199.332           4.000e+01     
 166.000          90.000           -1.691e+00          -1.691e+00             134.348          -8.965e+01             198.883           4.000e+01     
 167.000          90.000           -2.839e+00          -2.839e+00             131.268          -9.017e+01             198.773           4.000e+01     
 168.000          90.000           -4.478e+00          -4.478e+00             127.493          -9.076e+01             199.003           4.000e+01     
 169.000          90.000           -6.823e+00          -6.823e+00             122.056          -9.144e+01             199.582           4.000e+01     
 170.000          90.000           -1.030e+01          -1.030e+01             112.063          -9.222e+01             200.524           4.000e+01     
 171.000          90.000           -1.549e+01          -1.549e+01              85.023          -9.310e+01             201.857           4.000e+01     
 172.000          90.000           -1.655e+01          -1.655e+01              17.266          -9.412e+01             203.630           4.000e+01     
 173.000          90.000           -1.116e+01          -1.116e+01             342.645          -9.530e+01             205.921           4.000e+01     
 174.000          90.000           -7.322e+00          -7.322e+00             331.145          -9.669e+01             208.894           4.000e+01     
 175.000          90.000           -4.753e+00          -4.753e+00             325.604          -9.833e+01             212.830           4.000e+01     
 176.000          90.000           -2.960e+00          -2.960e+00             322.249          -1.003e+02             218.326           4.000e+01     
 177.000          90.000           -1.698e+00          -1.698e+00             319.925          -1.028e+02             226.749           4.000e+01     
 178.000          90.000           -8.407e-01          -8.407e-01             318.166          -1.060e+02             241.688           4.000e+01     
 179.000          90.000           -3.190e-01          -3.190e-01             316.744          -1.093e+02             272.118           4.000e+01     
 180.000          90.000           -9.733e-02          -9.733e-02             315.528          -1.092e+02             317.671           4.000e+01     
 179.000         270.000           -1.615e-01          -1.615e-01             134.432          -1.060e+02             167.496           4.000e+01     
 178.000         270.000           -5.172e-01          -5.172e-01             133.380          -1.029e+02             182.277           4.000e+01     
 177.000         270.000           -1.190e+00          -1.190e+00             132.292          -1.005e+02             190.813           4.000e+01     
 176.000         270.000           -2.231e+00          -2.231e+00             131.052          -9.856e+01             196.580           4.000e+01     
 175.000         270.000           -3.743e+00          -3.743e+00             129.456          -9.698e+01             200.913           4.000e+01     
 174.000         270.000           -5.917e+00          -5.917e+00             127.046          -9.564e+01             204.400           4.000e+01     
 173.000         270.000           -9.181e+00          -9.181e+00             122.485          -9.449e+01             207.332           4.000e+01     
 172.000         270.000           -1.468e+01          -1.468e+01             109.619          -9.348e+01             209.876           4.000e+01     
 171.000         270.000           -2.165e+01          -2.165e+01              37.471          -9.259e+01             212.122           4.000e+01     
 170.000         270.000           -1.374e+01          -1.374e+01             339.334          -9.180e+01             214.137           4.000e+01     
 169.000         270.000           -8.692e+00          -8.692e+00             328.823          -9.109e+01             215.967           4.000e+01     
 168.000         270.000           -5.639e+00          -5.639e+00             325.140          -9.045e+01             217.648           4.000e+01     
 167.000         270.000           -3.591e+00          -3.591e+00             323.492          -8.987e+01             219.208           4.000e+01     
 166.000         270.000           -2.168e+00          -2.168e+00             322.768          -8.934e+01             220.673           4.000e+01     
 165.000         270.000           -1.193e+00          -1.193e+00             322.591          -8.885e+01             222.065           4.000e+01     
 164.000         270.000           -5.714e-01          -5.714e-01             322.809          -8.841e+01             223.406           4.000e+01     
 163.000         270.000           -2.553e-01          -2.553e-01             323.383          -8.800e+01             224.715           4.000e+01     
 162.000         270.000           -2.198e-01          -2.198e-01             324.316          -8.762e+01             226.011           4.000e+01     
 161.000         270.000           -4.590e-01          -4.590e-01             325.667          -8.727e+01             227.308           4.000e+01     
 160.000         270.000           -9.835e-01          -9.835e-01             327.560          -8.695e+01             228.624           4.000e+01     
 159.000         270.000           -1.822e+00          -1.822e+00             330.224          -8.666e+01             229.972           4.000e+01     
 158.000         270.000           -3.025e+00          -3.025e+00             334.092          -8.638e+01             231.363           4.000e+01     
 157.000         270.000           -4.669e+00          -4.669e+00             340.039          -8.613e+01             232.806           4.000e+01     
 156.000         270.000           -6.839e+00          -6.839e+00             349.996          -8.589e+01             234.310           4.000e+01     
 155.000         270.000           -9.416e+00          -9.416e+00               8.290          -8.567e+01             235.881           4.000e+01     
 154.000         270.000           -1.113e+01          -1.113e+01              40.455          -8.546e+01             237.521           4.000e+01     
 153.000         270.000           -9.851e+00          -9.851e+00              75.407          -8.527e+01             239.231           4.000e+01     
 152.000         270.000           -7.105e+00          -7.105e+00              96.935          -8.508e+01             241.012           4.000e+01     
 151.000         270.000           -4.613e+00          -4.613e+00             108.716          -8.492e+01             242.859           4.000e+01     
 150.000         270.000           -2.636e+00          -2.636e+00             115.872          -8.476e+01             244.770           4.000e+01     
 149.000         270.000           -1.097e+00          -1.097e+00             120.773          -8.461e+01             246.739           4.000e+01     
 148.000         270.000            9.503e-02           9.503e-02             124.484          -8.447e+01             248.757           4.000e+01     
 147.000         270.000            1.008e+00           1.008e+00             127.533          -8.434e+01             250.819           4.000e+01     
 146.000         270.000            1.687e+00           1.687e+00             130.210          -8.421e+01             252.916           4.000e+01     
 145.000         270.000            2.166e+00           2.166e+00             132.700          -8.410e+01             255.040           4.000e+01     
 144.000         270.000            2.467e+00           2.467e+00             135.124          -8.400e+01             257.181           4.000e+01     
 143.000         270.000            2.603e+00           2.603e+00             137.581          -8.390e+01             259.333           4.000e+01     
 142.000         270.000            2.585e+00           2.585e+00             140.158          -8.382e+01             261.488           4.000e+01     
 141.000         270.000            2.418e+00           2.418e+00             142.943          -8.374e+01             263.638           4.000e+01     
 140.000         270.000            2.104e+00           2.104e+00             146.040          -8.367e+01             265.777           4.000e+01     
 139.000         270.000            1.643e+00           1.643e+00             149.579          -8.362e+01             267.901           4.000e+01     
 138.000         270.000            1.033e+00           1.033e+00             153.731          -8.357e+01             270.003           4.000e+01     
 137.000         270.000            2.735e-01           2.735e-01             158.737          -8.353e+01             272.081           4.000e+01     
 136.000         270.000           -6.297e-01          -6.297e-01             164.937          -8.351e+01             274.131           4.000e+01     
 135.000         270.000           -1.652e+00          -1.652e+00             172.812          -8.350e+01             276.150           4.000e+01     
 134.000         270.000           -2.727e+00          -2.727e+00             182.972          -8.350e+01             278.137           4.000e+01     
 133.000         270.000           -3.708e+00          -3.708e+00             195.986          -8.350e+01             280.090           4.000e+01     
 132.000         270.000           -4.349e+00          -4.349e+00             211.822          -8.353e+01             282.007           4.000e+01     
 131.000         270.000           -4.406e+00          -4.406e+00             229.108          -8.356e+01             283.889           4.000e+01     
 130.000         270.000           -3.845e+00          -3.845e+00             245.491          -8.360e+01             285.734           4.000e+01     
 129.000         270.000           -2.878e+00          -2.878e+00             259.295          -8.365e+01             287.543           4.000e+01     
 128.000         270.000           -1.760e+00          -1.760e+00             270.253          -8.371e+01             289.315           4.000e+01     
 127.000         270.000           -6.541e-01          -6.541e-01             278.866          -8.379e+01             291.050           4.000e+01     
 126.000         270.000            3.656e-01           3.656e-01             285.760          -8.387e+01             292.748           4.000e+01     
 125.000         270.000            1.274e+00           1.274e+00             291.440          -8.396e+01             294.410           4.000e+01     
 124.000         270.000            2.070e+00           2.070e+00             296.273          -8.405e+01             296.034           4.000e+01     
 123.000         270.000            2.761e+00           2.761e+00             300.512          -8.416e+01             297.621           4.000e+01     
 122.000         270.000            3.356e+00           3.356e+00             304.333          -8.427e+01             299.171           4.000e+01     
 121.000         270.000            3.866e+00           3.866e+00             307.862          -8.438e+01             300.683           4.000e+01     
 120.000         270.000            4.301e+00           4.301e+00             311.190          -8.450e+01             302.157           4.000e+01     
 119.000         270.000            4.669e+00           4.669e+00             314.384          -8.463e+01             303.593           4.000e+01     
 118.000         270.000            4.980e+00           4.980e+00             317.495          -8.475e+01             304.990           4.000e+01     
 117.000         270.000            5.239e+00           5.239e+00             320.562          -8.488e+01             306.349           4.000e+01     
 116.000         270.000            5.455e+00           5.455e+00             323.615          -8.501e+01             307.667           4.000e+01     
 115.000         270.000            5.633e+00           5.633e+00             326.679          -8.514e+01             308.946           4.000e+01     
 114.000         270.000            5.778e+00           5.778e+00             329.771          -8.528e+01             310.183           4.000e+01     
 113.000         270.000            5.898e+00           5.898e+00             332.907          -8.541e+01             311.380           4.000e+01     
 112.000         270.000            5.996e+00           5.996e+00             336.097          -8.554e+01             312.536           4.000e+01     
 111.000         270.000            6.078e+00           6.078e+00             339.348          -8.566e+01             313.649           4.000e+01     
 110.000         270.000            6.149e+00           6.149e+00             342.662          -8.579e+01             314.721           4.000e+01     
 109.000         270.000            6.212e+00           6.212e+00             346.040          -8.591e+01             315.750           4.000e+01     
 108.000         270.000            6.274e+00           6.274e+00             349.479          -8.603e+01             316.737           4.000e+01     
 107.000         270.000            6.337e+00           6.337e+00             352.971          -8.614e+01             317.683           4.000e+01     
 106.000         270.000            6.406e+00           6.406e+00             356.509          -8.625e+01             318.585           4.000e+01     
 105.000         270.000            6.484e+00           6.484e+00               0.078          -8.635e+01             319.445           4.000e+01     
 104.000         270.000            6.573e+00           6.573e+00               3.664          -8.645e+01             320.263           4.000e+01     
 103.000         270.000            6.676e+00           6.676e+00               7.251          -8.654e+01             321.039           4.000e+01     
 102.000         270.000            6.796e+00           6.796e+00              10.819          -8.663e+01             321.773           4.000e+01     
 101.000         270.000            6.932e+00           6.932e+00              14.352          -8.670e+01             322.466           4.000e+01     
 100.000         270.000            7.086e+00           7.086e+00              17.829          -8.678e+01             323.118           4.000e+01     
  99.000         270.000            7.258e+00           7.258e+00              21.235          -8.684e+01             323.730           4.000e+01     
  98.000         270.000            7.447e+00           7.447e+00              24.552          -8.690e+01             324.301           4.000e+01     
  97.000         270.000            7.653e+00           7.653e+00              27.767          -8.694e+01             324.832           4.000e+01     
  96.000         270.000            7.875e+00           7.875e+00              30.867          -8.698e+01             325.323           4.000e+01     
  95.000         270.000            8.111e+00           8.111e+00              33.843          -8.702e+01             325.774           4.000e+01     
  94.000         270.000            8.360e+00           8.360e+00              36.686          -8.704e+01             326.185           4.000e+01     
  93.000         270.000            8.620e+00           8.620e+00              39.392          -8.706e+01             326.556           4.000e+01     
  92.000         270.000            8.890e+00           8.890e+00              41.957          -8.707e+01             326.886           4.000e+01     
  91.000         270.000            9.169e+00           9.169e+00              44.378          -8.707e+01             327.176           4.000e+01     
  90.000         270.000            9.454e+00           9.454e+00              46.657          -8.706e+01             327.425           4.000e+01     
  89.000         270.000            9.746e+00           9.746e+00              48.792          -8.705e+01             327.631           4.000e+01     
  88.000         270.000            1.004e+01           1.004e+01              50.787          -8.702e+01             327.796           4.000e+01     
  87.000         270.000            1.034e+01           1.034e+01              52.643          -8.699e+01             327.916           4.000e+01     
  86.000         270.000            1.064e+01           1.064e+01              54.364          -8.696e+01             327.993           4.000e+01     
  85.000         270.000            1.094e+01           1.094e+01              55.952          -8.691e+01             328.024           4.000e+01     
  84.000         270.000            1.125e+01           1.125e+01              57.411          -8.686e+01             328.008           4.000e+01     
  83.000         270.000            1.155e+01           1.155e+01              58.744          -8.680e+01             327.945           4.000e+01     
  82.000         270.000            1.185e+01           1.185e+01              59.955          -8.674e+01             327.833           4.000e+01     
  81.000         270.000            1.215e+01           1.215e+01              61.048          -8.667e+01             327.671           4.000e+01     
  80.000         270.000            1.244e+01           1.244e+01              62.025          -8.659e+01             327.457           4.000e+01     
  79.000         270.000            1.273e+01           1.273e+01              62.890          -8.651e+01             327.190           4.000e+01     
  78.000         270.000            1.302e+01           1.302e+01              63.645          -8.642e+01             326.870           4.000e+01     
  77.000         270.000            1.331e+01           1.331e+01              64.293          -8.633e+01             326.495           4.000e+01     
  76.000         270.000            1.358e+01           1.358e+01              64.838          -8.623e+01             326.065           4.000e+01     
  75.000         270.000            1.386e+01           1.386e+01              65.281          -8.613e+01             325.577           4.000e+01     
  74.000         270.000            1.412e+01           1.412e+01              65.623          -8.603e+01             325.033           4.000e+01     
  73.000         270.000            1.438e+01           1.438e+01              65.869          -8.592e+01             324.430           4.000e+01     
  72.000         270.000            1.463e+01           1.463e+01              66.018          -8.581e+01             323.768           4.000e+01     
  71.000         270.000            1.488e+01           1.488e+01              66.072          -8.570e+01             323.048           4.000e+01     
  70.000         270.000            1.511e+01           1.511e+01              66.034          -8.558e+01             322.270           4.000e+01     
  69.000         270.000            1.534e+01           1.534e+01              65.903          -8.547e+01             321.433           4.000e+01     
  68.000         270.000            1.556e+01           1.556e+01              65.682          -8.536e+01             320.537           4.000e+01     
  67.000         270.000            1.577e+01           1.577e+01              65.371          -8.524e+01             319.584           4.000e+01     
  66.000         270.000            1.597e+01           1.597e+01              64.971          -8.513e+01             318.573           4.000e+01     
  65.000         270.000            1.616e+01           1.616e+01              64.483          -8.502e+01             317.505           4.000e+01     
  64.000         270.000            1.633e+01           1.633e+01              63.907          -8.491e+01             316.381           4.000e+01     
  63.000         270.000            1.650e+01           1.650e+01              63.246          -8.480e+01             315.202           4.000e+01     
  62.000         270.000            1.666e+01           1.666e+01              62.500          -8.470e+01             313.968           4.000e+01     
  61.000         270.000            1.680e+01           1.680e+01              61.670          -8.460e+01             312.682           4.000e+01     
  60.000         270.000            1.694e+01           1.694e+01              60.758          -8.451e+01             311.344           4.000e+01     
  59.000         270.000            1.706e+01           1.706e+01              59.767          -8.442e+01             309.954           4.000e+01     
  58.000         270.000            1.717e+01           1.717e+01              58.699          -8.434e+01             308.515           4.000e+01     
  57.000         270.000            1.727e+01           1.727e+01              57.558          -8.427e+01             307.027           4.000e+01     
  56.000         270.000            1.736e+01           1.736e+01              56.347          -8.420e+01             305.491           4.000e+01     
  55.000         270.000            1.744e+01           1.744e+01              55.073          -8.414e+01             303.909           4.000e+01     
  54.000         270.000            1.751e+01           1.751e+01              53.741          -8.409e+01             302.279           4.000e+01     
  53.000         270.000            1.757e+01           1.757e+01              52.360          -8.406e+01             300.605           4.000e+01     
  52.000         270.000            1.763e+01           1.763e+01              50.938          -8.403e+01             298.887           4.000e+01     
  51.000         270.000            1.767e+01           1.767e+01              49.487          -8.401e+01             297.125           4.000e+01     
  50.000         270.000            1.770e+01           1.770e+01              48.019          -8.400e+01             295.321           4.000e+01     
  49.000         270.000            1.773e+01           1.773e+01              46.547          -8.401e+01             293.475           4.000e+01     
  48.000         270.000            1.775e+01           1.775e+01              45.088          -8.403e+01             291.587           4.000e+01     
  47.000         270.000            1.776e+01           1.776e+01              43.658          -8.406e+01             289.660           4.000e+01     
  46.000         270.000            1.777e+01           1.777e+01              42.276          -8.410e+01             287.695           4.000e+01     
  45.000         270.000            1.776e+01           1.776e+01              40.962          -8.415e+01             285.694           4.000e+01     
  44.000         270.000            1.775e+01           1.775e+01              39.737          -8.422e+01             283.658           4.000e+01     
  43.000         270.000            1.773e+01           1.773e+01              38.621          -8.430e+01             281.590           4.000e+01     
  42.000         270.000            1.771e+01           1.771e+01              37.637          -8.438e+01             279.495           4.000e+01     
  41.000         270.000            1.767e+01           1.767e+01              36.806          -8.448e+01             277.376           4.000e+01     
  40.000         270.000            1.763e+01           1.763e+01              36.150          -8.459e+01             275.238           4.000e+01     
  39.000         270.000            1.758e+01           1.758e+01              35.689          -8.471e+01             273.088           4.000e+01     
  38.000         270.000            1.753e+01           1.753e+01              35.441          -8.484e+01             270.932           4.000e+01     
  37.000         270.000            1.747e+01           1.747e+01              35.423          -8.498e+01             268.779           4.000e+01     
  36.000         270.000            1.741e+01           1.741e+01              35.647          -8.512e+01             266.637           4.000e+01     
  35.000         270.000            1.735e+01           1.735e+01              36.122          -8.527e+01             264.517           4.000e+01     
  34.000         270.000            1.729e+01           1.729e+01              36.849          -8.543e+01             262.428           4.000e+01     
  33.000         270.000            1.724e+01           1.724e+01              37.822          -8.559e+01             260.381           4.000e+01     
  32.000         270.000            1.719e+01           1.719e+01              39.031          -8.575e+01             258.387           4.000e+01     
  31.000         270.000            1.716e+01           1.716e+01              40.449          -8.592e+01             256.456           4.000e+01     
  30.000         270.000            1.715e+01           1.715e+01              42.044          -8.609e+01             254.597           4.000e+01     
  29.000         270.000            1.716e+01           1.716e+01              43.773          -8.627e+01             252.818           4.000e+01     
  28.000         270.000            1.720e+01           1.720e+01              45.585          -8.645e+01             251.125           4.000e+01     
  27.000         270.000            1.725e+01           1.725e+01              47.425          -8.663e+01             249.522           4.000e+01     
  26.000         270.000            1.733e+01           1.733e+01              49.234          -8.682e+01             248.011           4.000e+01     
  25.000         270.000            1.743e+01           1.743e+01              50.957          -8.701e+01             246.591           4.000e+01     
  24.000         270.000            1.754e+01           1.754e+01              52.542          -8.721e+01             245.257           4.000e+01     
  23.000         270.000            1.766e+01           1.766e+01              53.947          -8.742e+01             244.004           4.000e+01     
  22.000         270.000            1.779e+01           1.779e+01              55.137          -8.764e+01             242.820           4.000e+01     
  21.000         270.000            1.792e+01           1.792e+01              56.085          -8.787e+01             241.695           4.000e+01     
  20.000         270.000            1.805e+01           1.805e+01              56.776          -8.811e+01             240.615           4.000e+01     
  19.000         270.000            1.816e+01           1.816e+01              57.200          -8.836e+01             239.564           4.000e+01     
  18.000         270.000            1.827e+01           1.827e+01              57.355          -8.864e+01             238.526           4.000e+01     
  17.000         270.000            1.836e+01           1.836e+01              57.247          -8.894e+01             237.485           4.000e+01     
  16.000         270.000            1.844e+01           1.844e+01              56.884          -8.927e+01             236.425           4.000e+01     
  15.000         270.000            1.850e+01           1.850e+01              56.281          -8.962e+01             235.332           4.000e+01     
  14.000         270.000            1.855e+01           1.855e+01              55.457          -9.002e+01             234.191           4.000e+01     
  13.000         270.000            1.858e+01           1.858e+01              54.436          -9.045e+01             232.993           4.000e+01     
  12.000         270.000            1.860e+01           1.860e+01              53.246          -9.094e+01             231.729           4.000e+01     
  11.000         270.000            1.861e+01           1.861e+01              51.921          -9.148e+01             230.395           4.000e+01     
  10.000         270.000            1.861e+01           1.861e+01              50.499          -9.208e+01             228.991           4.000e+01     
   9.000         270.000            1.861e+01           1.861e+01              49.021          -9.277e+01             227.524           4.000e+01     
   8.000         270.000            1.860e+01           1.860e+01              47.533          -9.355e+01             226.007           4.000e+01     
   7.000         270.000            1.858e+01           1.858e+01              46.080          -9.445e+01             224.460           4.000e+01     
   6.000         270.000            1.857e+01           1.857e+01              44.709          -9.549e+01             222.929           4.000e+01     
   5.000         270.000            1.855e+01           1.855e+01              43.467          -9.671e+01             221.473           4.000e+01     
   4.000         270.000            1.853e+01           1.853e+01              42.394          -9.820e+01             220.201           4.000e+01     
   3.000         270.000            1.850e+01           1.850e+01              41.528          -1.000e+02             219.321           4.000e+01     
   2.000         270.000            1.847e+01           1.847e+01              40.900          -1.025e+02             219.301           4.000e+01     
   1.000         270.000            1.844e+01           1.844e+01              40.534          -1.059e+02             221.505           4.000e+01     
